{
  "Fat": {
    "Spectrum": [
      0.000313066,
      0.000313066,
      0.000313066,
      0.000313066,
      0.000313066,
      0.000313066,
      0.000313066,
      0.000313066,
      0.000313066,
      0.000313066,
      0.000313066,
      0.000313066,
      0.000313066,
      0.000313066,
      0.000313066,
      0.000313066,
      0.000313066,
      0.000313066,
      0.000313066,
      0.000313066,
      0.000313066,
      0.000313066,
      0.000313066,
      0.000313066,
      0.000313066,
      0.000313066,
      0.000313066,
      0.000301644,
      0.000295663,
      0.000291032,
      0.000284691,
      0.00027791,
      0.000285221,
      0.000296703,
      0.000308106,
      0.000319488,
      0.000313937,
      0.000302504,
      0.000282921,
      0.000260277,
      0.000240333,
      0.00022148,
      0.000204857,
      0.000189214,
      0.000176452,
      0.00016502,
      0.000161209,
      0.000161209,
      0.000152127,
      0.000138175,
      0.000127433,
      0.000118521,
      0.000115151,
      0.000115151,
      0.000108229,
      9.68E-05,
      9.82E-05,
      0.00010843,
      0.000125813,
      0.000148467,
      0.000171431,
      0.000194635,
      0.00022407,
      0.000258697,
      0.000299394,
      0.000345452,
      0.000373847,
      0.000385629,
      0.000391691,
      0.000392031,
      0.000414875,
      0.000461633,
      0.000518773,
      0.000587656,
      0.000655828,
      0.00072317,
      0.00077654,
      0.000812096,
      0.000852114,
      0.000898172,
      0.000928607,
      0.000936529,
      0.000902593,
      0.000804295,
      0.000690904,
      0.00055273,
      0.000425197,
      0.000316327,
      0.000225531,
      0.00016851,
      0.000122892,
      0.000100048,
      7.83E-05,
      5.9E-05,
      4.56E-05,
      4.59E-05,
      4.61E-05,
      4.61E-05,
      5.07E-05,
      6.76E-05,
      8.46E-05,
      0.000101948,
      0.000121812,
      0.000149657,
      0.000176732,
      0.000201226,
      0.000226411,
      0.000254116,
      0.000280801,
      0.000303295,
      0.000327299,
      0.000358135,
      0.00038638,
      0.000401612,
      0.000414935,
      0.000417535,
      0.000416695,
      0.000394001,
      0.000372347,
      0.000358145,
      0.000343182,
      0.000321868,
      0.000301314,
      0.000288352,
      0.00027636,
      0.00027636,
      0.00027636,
      0.00027636,
      0.00027687,
      0.000288002,
      0.000300204,
      0.000346042,
      0.000392411,
      0.000472565,
      0.00055273,
      0.000645186,
      0.000737653,
      0.0008876,
      0.001038387,
      0.00127863,
      0.001521574,
      0.001864436,
      0.002212199,
      0.002680183,
      0.003156169,
      0.003676462,
      0.004200457,
      0.004465905,
      0.004705548,
      0.004741754,
      0.004753956,
      0.004896282,
      0.005056711,
      0.005479287,
      0.005943271,
      0.006654499,
      0.007409835,
      0.008132265,
      0.008847994,
      0.009419297,
      0.009958494,
      0.010470886,
      0.010975977,
      0.011347044,
      0.011683105,
      0.011633096,
      0.011468066,
      0.010755938,
      0.009869378,
      0.008687065,
      0.007401633,
      0.006201817,
      0.005034107,
      0.004139046,
      0.003354204,
      0.002785502,
      0.002311116,
      0.001959153,
      0.0016643,
      0.001451061,
      0.00127863,
      0.001147207,
      0.001037587,
      0.000954982,
      0.00088768,
      0.000838131,
      0.000799384,
      0.000770879,
      0.000749005,
      0.000739573,
      0.000738743,
      0.000749995,
      0.000770149,
      0.000823808,
      0.000903763,
      0.001020684,
      0.001168611,
      0.001341742,
      0.001537177,
      0.001744714,
      0.001963354
    ],
    "Wavelengths": [
      600.0,
      602.0,
      604.0,
      606.0,
      608.0,
      610.0,
      612.0,
      614.0,
      616.0,
      618.0,
      620.0,
      622.0,
      624.0,
      626.0,
      628.0,
      630.0,
      632.0,
      634.0,
      636.0,
      638.0,
      640.0,
      642.0,
      644.0,
      646.0,
      648.0,
      650.0,
      652.0,
      654.0,
      656.0,
      658.0,
      660.0,
      662.0,
      664.0,
      666.0,
      668.0,
      670.0,
      672.0,
      674.0,
      676.0,
      678.0,
      680.0,
      682.0,
      684.0,
      686.0,
      688.0,
      690.0,
      692.0,
      694.0,
      696.0,
      698.0,
      700.0,
      702.0,
      704.0,
      706.0,
      708.0,
      710.0,
      712.0,
      714.0,
      716.0,
      718.0,
      720.0,
      722.0,
      724.0,
      726.0,
      728.0,
      730.0,
      732.0,
      734.0,
      736.0,
      738.0,
      740.0,
      742.0,
      744.0,
      746.0,
      748.0,
      750.0,
      752.0,
      754.0,
      756.0,
      758.0,
      760.0,
      762.0,
      764.0,
      766.0,
      768.0,
      770.0,
      772.0,
      774.0,
      776.0,
      778.0,
      780.0,
      782.0,
      784.0,
      786.0,
      788.0,
      790.0,
      792.0,
      794.0,
      796.0,
      798.0,
      800.0,
      802.0,
      804.0,
      806.0,
      808.0,
      810.0,
      812.0,
      814.0,
      816.0,
      818.0,
      820.0,
      822.0,
      824.0,
      826.0,
      828.0,
      830.0,
      832.0,
      834.0,
      836.0,
      838.0,
      840.0,
      842.0,
      844.0,
      846.0,
      848.0,
      850.0,
      852.0,
      854.0,
      856.0,
      858.0,
      860.0,
      862.0,
      864.0,
      866.0,
      868.0,
      870.0,
      872.0,
      874.0,
      876.0,
      878.0,
      880.0,
      882.0,
      884.0,
      886.0,
      888.0,
      890.0,
      892.0,
      894.0,
      896.0,
      898.0,
      900.0,
      902.0,
      904.0,
      906.0,
      908.0,
      910.0,
      912.0,
      914.0,
      916.0,
      918.0,
      920.0,
      922.0,
      924.0,
      926.0,
      928.0,
      930.0,
      932.0,
      934.0,
      936.0,
      938.0,
      940.0,
      942.0,
      944.0,
      946.0,
      948.0,
      950.0,
      952.0,
      954.0,
      956.0,
      958.0,
      960.0,
      962.0,
      964.0,
      966.0,
      968.0,
      970.0,
      972.0,
      974.0,
      976.0,
      978.0,
      980.0,
      982.0,
      984.0,
      986.0,
      988.0,
      990.0,
      992.0,
      994.0,
      996.0,
      998.0,
      1000.0
    ],
    "ChromophoreCoefficientType": "FractionalAbsorptionCoefficient",
    "AbsorptionCoefficientUnit": "InverseMillimeters",
    "MolarUnit": "None",
    "WavelengthUnit": "Nanometers",
    "Name": "Fat"
  },
  "H2O": {
    "Spectrum": [
      5.8E-05,
      3.8E-05,
      2.8E-05,
      2.47E-05,
      2.5E-05,
      3.2E-05,
      4.5E-05,
      7.9E-05,
      0.000301361,
      0.000310772,
      0.000317148,
      0.000326317,
      0.00033178,
      0.000335808,
      0.000339082,
      0.000342371,
      0.000345556,
      0.000348538,
      0.000351688,
      0.000354984,
      0.000358249,
      0.000361232,
      0.000364184,
      0.000367137,
      0.000369942,
      0.000372181,
      0.000374594,
      0.000377599,
      0.000380555,
      0.00038357,
      0.00038699,
      0.000390933,
      0.000395103,
      0.000400257,
      0.000405404,
      0.000411359,
      0.00041864,
      0.000428234,
      0.00043862,
      0.00044904,
      0.00045953,
      0.00046341,
      0.00046729,
      0.00047162,
      0.000476,
      0.00048123,
      0.00048702,
      0.00049263,
      0.0004979,
      0.00050335,
      0.00051179,
      0.00052023,
      0.00053635,
      0.00055465,
      0.00057365,
      0.00059334,
      0.00061459,
      0.0006413,
      0.00066801,
      0.00070141,
      0.0007352,
      0.00077553,
      0.00081911,
      0.00087178,
      0.00093872,
      0.0010084,
      0.0011003,
      0.0011921,
      0.0012777,
      0.0013621,
      0.0014746,
      0.0016096,
      0.0017669,
      0.0019821,
      0.0021974,
      0.0023893,
      0.0025813,
      0.0026869,
      0.0027594,
      0.0028082,
      0.0028272,
      0.0028436,
      0.002847,
      0.0028503,
      0.0028611,
      0.0028728,
      0.0028735,
      0.0028672,
      0.0028629,
      0.0028626,
      0.0028615,
      0.0028469,
      0.0028323,
      0.0028123,
      0.0027907,
      0.0027704,
      0.0027515,
      0.0027275,
      0.0026862,
      0.0026449,
      0.0025978,
      0.0025503,
      0.0025067,
      0.002465,
      0.0024226,
      0.0023792,
      0.002336,
      0.0022939,
      0.0022518,
      0.0022289,
      0.0022099,
      0.0021984,
      0.002193,
      0.0021932,
      0.0022081,
      0.002223,
      0.0022627,
      0.0023025,
      0.0023675,
      0.0024422,
      0.0025603,
      0.0027326,
      0.0029212,
      0.0031921,
      0.0034629,
      0.0036191,
      0.0037608,
      0.0038604,
      0.003933,
      0.0040004,
      0.0040571,
      0.0041131,
      0.0041565,
      0.0041999,
      0.0042426,
      0.0042851,
      0.0043369,
      0.0043981,
      0.0044566,
      0.004506,
      0.0045555,
      0.0046257,
      0.0046971,
      0.0047756,
      0.0048577,
      0.0049495,
      0.0050566,
      0.0051644,
      0.0052783,
      0.0053922,
      0.005497,
      0.0056,
      0.0057182,
      0.0058485,
      0.0059722,
      0.0060786,
      0.006185,
      0.0062922,
      0.0063994,
      0.0065231,
      0.0066532,
      0.0067955,
      0.0069531,
      0.0071212,
      0.0073413,
      0.0075615,
      0.0078922,
      0.0082367,
      0.0087093,
      0.0092633,
      0.0098433,
      0.010475,
      0.01113,
      0.012188,
      0.013246,
      0.014419,
      0.015625,
      0.017071,
      0.018757,
      0.02044,
      0.022112,
      0.023784,
      0.026747,
      0.029785,
      0.032953,
      0.036186,
      0.039088,
      0.041468,
      0.04374,
      0.045152,
      0.046564,
      0.047179,
      0.047635,
      0.048005,
      0.048306,
      0.048529,
      0.048549,
      0.048569,
      0.048205,
      0.04784,
      0.047304,
      0.046702,
      0.046001,
      0.045176,
      0.044345,
      0.043489,
      0.042632,
      0.041663,
      0.040679
    ],
    "Wavelengths": [
      400.0,
      425.0,
      450.0,
      475.0,
      500.0,
      525.0,
      550.0,
      575.0,
      600.0,
      602.0,
      604.0,
      606.0,
      608.0,
      610.0,
      612.0,
      614.0,
      616.0,
      618.0,
      620.0,
      622.0,
      624.0,
      626.0,
      628.0,
      630.0,
      632.0,
      634.0,
      636.0,
      638.0,
      640.0,
      642.0,
      644.0,
      646.0,
      648.0,
      650.0,
      652.0,
      654.0,
      656.0,
      658.0,
      660.0,
      662.0,
      664.0,
      666.0,
      668.0,
      670.0,
      672.0,
      674.0,
      676.0,
      678.0,
      680.0,
      682.0,
      684.0,
      686.0,
      688.0,
      690.0,
      692.0,
      694.0,
      696.0,
      698.0,
      700.0,
      702.0,
      704.0,
      706.0,
      708.0,
      710.0,
      712.0,
      714.0,
      716.0,
      718.0,
      720.0,
      722.0,
      724.0,
      726.0,
      728.0,
      730.0,
      732.0,
      734.0,
      736.0,
      738.0,
      740.0,
      742.0,
      744.0,
      746.0,
      748.0,
      750.0,
      752.0,
      754.0,
      756.0,
      758.0,
      760.0,
      762.0,
      764.0,
      766.0,
      768.0,
      770.0,
      772.0,
      774.0,
      776.0,
      778.0,
      780.0,
      782.0,
      784.0,
      786.0,
      788.0,
      790.0,
      792.0,
      794.0,
      796.0,
      798.0,
      800.0,
      802.0,
      804.0,
      806.0,
      808.0,
      810.0,
      812.0,
      814.0,
      816.0,
      818.0,
      820.0,
      822.0,
      824.0,
      826.0,
      828.0,
      830.0,
      832.0,
      834.0,
      836.0,
      838.0,
      840.0,
      842.0,
      844.0,
      846.0,
      848.0,
      850.0,
      852.0,
      854.0,
      856.0,
      858.0,
      860.0,
      862.0,
      864.0,
      866.0,
      868.0,
      870.0,
      872.0,
      874.0,
      876.0,
      878.0,
      880.0,
      882.0,
      884.0,
      886.0,
      888.0,
      890.0,
      892.0,
      894.0,
      896.0,
      898.0,
      900.0,
      902.0,
      904.0,
      906.0,
      908.0,
      910.0,
      912.0,
      914.0,
      916.0,
      918.0,
      920.0,
      922.0,
      924.0,
      926.0,
      928.0,
      930.0,
      932.0,
      934.0,
      936.0,
      938.0,
      940.0,
      942.0,
      944.0,
      946.0,
      948.0,
      950.0,
      952.0,
      954.0,
      956.0,
      958.0,
      960.0,
      962.0,
      964.0,
      966.0,
      968.0,
      970.0,
      972.0,
      974.0,
      976.0,
      978.0,
      980.0,
      982.0,
      984.0,
      986.0,
      988.0,
      990.0,
      992.0,
      994.0,
      996.0,
      998.0,
      1000.0
    ],
    "ChromophoreCoefficientType": "FractionalAbsorptionCoefficient",
    "AbsorptionCoefficientUnit": "InverseMillimeters",
    "MolarUnit": "None",
    "WavelengthUnit": "Nanometers",
    "Name": "H2O"
  },
  "Hb": {
    "Spectrum": [
      0.0112736,
      0.0112736,
      0.0112736,
      0.0113824,
      0.011504,
      0.0116296,
      0.0117564,
      0.0118876,
      0.0120208,
      0.0121544,
      0.012288,
      0.0123096,
      0.0121952,
      0.0120808,
      0.011984,
      0.0118872,
      0.0117628,
      0.011482,
      0.0112008,
      0.010714,
      0.0098364,
      0.0091636,
      0.008582,
      0.00771,
      0.0069444,
      0.006444,
      0.00613,
      0.0058828,
      0.0056908,
      0.005762,
      0.0059156,
      0.0062248,
      0.0065344,
      0.0068312,
      0.0071208,
      0.0074508,
      0.0078284,
      0.008206,
      0.0085592,
      0.0088516,
      0.0090856,
      0.0093192,
      0.0095532,
      0.0099792,
      0.0104476,
      0.0108472,
      0.0110996,
      0.0113524,
      0.0116052,
      0.0118752,
      0.0122092,
      0.0125436,
      0.0128776,
      0.013212,
      0.0133632,
      0.013494,
      0.0136044,
      0.0136972,
      0.01379,
      0.0138856,
      0.0139968,
      0.0141084,
      0.0142196,
      0.0143312,
      0.0144424,
      0.0145232,
      0.0145232,
      0.0148668,
      0.0153908,
      0.0159544,
      0.016778,
      0.0180004,
      0.019154,
      0.0202124,
      0.0212712,
      0.0223296,
      0.0236188,
      0.0253368,
      0.0270548,
      0.0287356,
      0.0303956,
      0.0321344,
      0.0342596,
      0.0363848,
      0.038568,
      0.040756,
      0.042988,
      0.04612,
      0.048184,
      0.050084,
      0.05286,
      0.055216,
      0.055216,
      0.054704,
      0.050156,
      0.041328,
      0.036324,
      0.0282724,
      0.0237224,
      0.017332,
      0.0103292,
      0.006264,
      0.003617,
      0.00306988,
      0.00258864,
      0.00233888,
      0.00208912,
      0.00192608,
      0.00181424,
      0.00170256,
      0.00161564,
      0.001531,
      0.00150484,
      0.00147928,
      0.00146572,
      0.001455,
      0.00148812,
      0.00152124,
      0.00155436,
      0.0015898,
      0.0016684,
      0.00174696,
      0.00182556,
      0.00190412,
      0.00198912,
      0.0020862,
      0.00218328,
      0.00228036,
      0.00237744,
      0.00247452,
      0.00257736,
      0.00269368,
      0.00281,
      0.00292632,
      0.00304264,
      0.00315896,
      0.00328512,
      0.00343976,
      0.0035944,
      0.003749,
      0.00390364,
      0.0040584,
      0.0042088,
      0.0043592,
      0.0045092,
      0.0046592,
      0.0048148,
      0.0049708,
      0.0051268,
      0.0052496,
      0.0053412,
      0.005408,
      0.005452,
      0.005454,
      0.0054164,
      0.0053788,
      0.0052276,
      0.0050572,
      0.0048828,
      0.0046948,
      0.0045072,
      0.004334,
      0.0041716,
      0.0040092,
      0.00384676,
      0.003702,
      0.00356764,
      0.00343328,
      0.00328516,
      0.00310752,
      0.00283244,
      0.002547,
      0.00225748,
      0.00198,
      0.00170584,
      0.00146772,
      0.00136224,
      0.00125676,
      0.00115132,
      0.00104776,
      0.00094436,
      0.00085912,
      0.0007762,
      0.00073448,
      0.00069272,
      0.00065096,
      0.00061932,
      0.00059068,
      0.000562,
      0.00053668,
      0.00051488,
      0.00049308,
      0.00047308,
      0.00046024,
      0.00044736,
      0.00043452,
      0.00042168,
      0.00040884,
      0.000396508,
      0.00038576,
      0.000375012,
      0.000364264,
      0.000353516,
      0.000342768,
      0.00033202,
      0.000322656,
      0.000314028,
      0.000305396,
      0.000296768,
      0.00028814,
      0.000279512,
      0.000270884,
      0.000262764,
      0.00025544,
      0.000248116,
      0.000240792,
      0.000233468,
      0.000226148,
      0.000218824,
      0.0002115,
      0.000205196,
      0.000200048,
      0.000194904,
      0.000189756,
      0.000184608,
      0.000179428,
      0.0001741,
      0.000168776,
      0.000163448,
      0.000158352,
      0.000154048,
      0.00014974,
      0.000145436,
      0.000141132,
      0.000136828,
      0.000132588,
      0.000128516,
      0.000124444,
      0.000120368,
      0.00011528,
      0.00011022,
      0.00011022,
      0.00011022,
      0.000110176,
      0.000110048,
      0.000111588,
      0.000116164,
      0.00012074,
      0.000126604,
      0.000133324,
      0.000140524,
      0.000151532,
      0.000154176,
      0.000156048,
      0.000156048,
      0.000154852,
      0.000150844,
      0.000145956,
      0.000141052,
      0.000136132,
      0.000131188,
      0.000126244,
      0.0001213,
      0.000116356,
      0.00011148,
      0.000107544,
      0.000103608,
      9.9672E-05,
      9.5736E-05,
      9.218E-05,
      8.908E-05,
      8.598E-05,
      8.288E-05,
      8.0296E-05,
      7.8236E-05,
      7.6172E-05,
      7.4384E-05,
      7.3708E-05,
      7.3028E-05,
      7.2352E-05,
      7.1708E-05,
      7.1184E-05,
      7.066E-05,
      7.0132E-05,
      6.9608E-05,
      6.9376E-05,
      6.936E-05,
      6.9348E-05,
      6.9332E-05,
      6.932E-05,
      6.9304E-05,
      6.9292E-05,
      6.9276E-05,
      6.9264E-05,
      6.9248E-05,
      6.9236E-05,
      6.922E-05,
      6.9196E-05,
      6.9176E-05,
      6.9152E-05,
      6.9132E-05,
      6.9108E-05,
      6.9088E-05,
      6.9064E-05,
      6.9244E-05,
      6.9432E-05,
      6.962E-05,
      6.9804E-05,
      6.9992E-05,
      7.018E-05,
      7.0584E-05,
      7.0996E-05,
      7.1408E-05,
      7.182E-05,
      7.2232E-05,
      7.2644E-05,
      7.2984E-05,
      7.332E-05,
      7.366E-05,
      7.3996E-05,
